# Profile Compression settings. Method: Sum Points, using 1 datapoints
# Profile Smoothing is Disabled
#	total	C_2HO-	LiCO_3-	LiF_2-	LiO-	Li_3N-	SO-	LiO_2-	Li_2O-	
#	N/A	40.9138	66.9930	45.4100	22.8669	34.5997	48.1363	39.1065	30.0886	
Sputter Time (s)	Intensity	Intensity(Background Corrected)	Intensity(Background Corrected)	Intensity(Background Corrected)	Intensity(Background Corrected)	Intensity(Background Corrected)	Intensity(Background Corrected)	Intensity(Background Corrected)	Intensity(Background Corrected)	
0	134559	859.298	21.0131	42.0539	1636.14	160.786	53.0929	393.703	43.0517	
1	135559	1413.33	22.0129	62.1172	2785.37	206.293	46.0673	589.443	71.1496	
2	135449	1327.68	42.0498	87.2317	2829.29	207.306	37.0448	690.311	64.1221	
3	137348	1331.02	34.0306	72.1579	2957.58	198.206	30.0328	759.409	70.1498	
4	137293	1290.68	30.0252	79.1902	2974.7	180.996	41.0527	789.72	70.1449	
5	138363	1337.53	21.0126	65.1301	2968.37	178.974	38.0441	777.193	72.1535	
6	137125	1235.21	41.047	59.1092	2901.77	183.018	36.0426	773.987	77.1806	
7	137314	1303.75	24.0169	68.1403	2958.78	193.134	31.0342	782.461	58.104	
8	139109	1226.88	33.0297	82.2051	2893.03	194.158	36.0418	816.015	76.1753	
9	137209	1222.57	39.0393	62.1159	3012.98	168.867	39.0499	808.561	78.1831	
10	138687	1248.61	34.0309	94.2707	2978.16	164.826	41.053	843.41	83.2081	
11	138208	1249.84	33.0275	70.1487	2955.19	164.826	34.0353	848.608	89.2439	
12	139527	1216.11	32.0288	69.1444	2975.62	159.777	31.0309	875.973	68.1363	
13	138336	1208.8	41.0453	88.2372	2920.49	159.777	35.0395	859.11	74.1635	
14	140315	1199.11	41.0458	85.2198	2960.18	171.909	39.0481	912.967	70.1481	
15	139349	1173.08	36.0354	83.2143	2976.96	167.857	33.0348	862.206	67.1335	
16	139991	1169.93	41.0445	90.2481	3031.02	160.796	34.0353	890.867	87.2292	
17	140871	1178.75	44.051	67.1385	2904.96	172.909	28.0257	908.815	68.14	
18	140859	1198.18	47.0599	82.2042	2918.88	174.931	47.0702	838.109	71.151	
19	140178	1266.97	39.0394	80.1993	3006.97	134.551	29.027	900.312	69.1442	
20	139518	1199.19	44.0521	84.216	3016.58	159.777	35.0374	894.983	65.1284	
21	139652	1196.96	33.0302	86.2281	2953.58	131.527	39.0489	880.224	77.1781	
22	139633	1197.23	41.05	73.1656	2969.57	135.559	48.0747	920.392	73.1583	
23	140663	1181.92	34.0317	75.1763	3047.67	175.941	33.0397	908.791	68.1443	
24	138717	1109.1	38.0399	72.1585	2910.13	133.55	33.0379	882.366	71.1525	
25	139625	1164.63	36.0357	103.324	3045.67	170.899	41.0539	926.875	64.1225	
26	138818	1148.43	34.0318	82.2058	2994.76	163.816	36.0416	961.884	59.1022	
27	139457	1171.07	43.0492	97.2883	3013.32	156.747	33.0333	960.712	72.1555	
28	138907	1117.45	35.0336	78.189	3032.02	170.888	46.0686	920.383	63.1192	
29	139593	1189.43	50.0744	75.1722	3029.81	160.786	24.0186	958.536	53.0842	
30	138353	1155.12	35.0335	78.1909	3085.05	179.985	37.0441	929.985	70.1478	
31	139482	1069.27	43.0478	70.1498	3084.25	156.747	38.0484	1010.62	68.1427	
32	137715	1124.94	33.0304	72.1581	3073.39	175.941	41.0514	930.969	72.1555	
33	140069	1126.18	43.0544	82.2053	3087.46	158.767	35.0374	990.414	62.1166	
34	138125	1156.05	29.0231	71.1542	2970.76	141.61	35.0374	991.46	77.1765	
35	140293	1132.52	48.0663	89.2424	3068.36	153.719	25.0191	958.659	75.1694	
36	138267	1153.97	34.0301	75.1722	3179.48	164.826	37.0441	958.598	62.115	
37	138494	1107.68	50.0679	76.1768	3051.9	154.728	28.0271	971.365	65.1276	
38	139576	1175.3	44.0542	83.2106	2934.84	140.602	38.0441	1013.75	81.1933	
39	137376	1089.77	29.0237	70.15	2998.56	144.637	20.0122	973.373	63.1204	
40	138893	1175.6	39.0422	100.305	3126.56	143.628	29.0275	988.313	72.157	
41	138333	1179.77	41.0432	104.328	3046.46	146.654	25.0191	978.847	73.1606	
42	137879	1127.24	40.0443	85.22	3017.58	161.796	35.0392	979.789	59.1073	
43	137480	1135.59	35.0346	81.2009	3154.22	150.691	33.0365	1002.18	64.125	
44	138271	1167.78	37.0369	82.2058	2970.96	146.654	32.0347	1003.12	70.1457	
45	139084	1147.39	48.0633	84.2174	3053.69	158.776	32.0346	956.587	63.1199	
46	138052	1055.6	37.038	74.1709	3054.9	145.645	30.0306	976.616	66.1315	
47	138804	1087.43	36.0361	91.2537	3139.46	114.398	25.0203	1039.43	72.1561	
48	138633	1084.5	41.0481	89.2426	3149.58	136.568	30.0302	968.129	69.1445	
49	137728	1068.34	50.0677	91.2537	3131.41	176.952	30.031	1020.17	73.1626	
50	137496	1119.66	37.0385	93.2646	3140.1	171.899	28.0296	1014.86	58.102	
51	135777	1114.31	44.0561	83.2109	3085.67	146.654	32.0331	1025.58	57.0967	
52	137656	1119.59	45.0549	86.2263	3116.71	132.535	38.05	985.057	68.1402	
53	135450	1068.2	33.0307	90.2471	3056.1	138.584	37.0418	981.986	74.1669	
54	138309	1005.6	46.0616	90.248	3110.42	130.518	30.0307	1056.54	78.1848	
55	137415	1070.47	42.0526	90.2481	3060.13	152.709	29.0257	1051.08	67.1361	
56	139828	1089.57	39.0422	71.1543	3144.52	152.709	30.0292	1022.36	65.1276	
57	138428	1130.16	44.0572	100.306	3120.51	156.747	35.0374	1022.49	68.1406	
58	136464	1072.41	38.0441	91.2527	3079.84	147.672	40.0534	1042.77	63.1201	
59	136000	1074.66	42.0495	80.196	3144.52	149.682	40.053	1059.57	60.1084	
60	135969	1039.34	45.0514	65.1366	2930.64	145.645	43.0565	997.998	78.1852	
61	137807	1058.66	44.0562	97.2869	3205.21	145.645	40.0555	1029.77	70.1488	
62	136836	1041.54	47.0682	84.2161	3104.58	139.593	33.0353	1028.66	60.1096	
63	137139	1091.64	35.0347	87.2349	3054.06	160.786	38.0441	1084.13	71.1507	
64	137332	1070.27	41.0463	95.2749	2979.56	117.42	38.0452	980.981	54.0888	
65	138519	1121.81	39.0406	104.331	3097.33	154.738	26.0231	1015.06	78.187	
66	137665	1078.75	43.051	96.2879	3152.98	136.568	23.0198	1017.96	68.138	
67	139631	1135.81	37.0377	116.412	3219.81	176.952	34.0389	1035.07	68.1379	
68	138747	1044.74	34.0298	109.364	3144.31	139.593	16.0088	998.941	78.1822	
69	138076	1064.07	38.0409	80.1947	3068.16	146.654	36.0417	1030.74	58.1029	
70	137540	1082.16	43.0532	86.2265	3225.9	138.584	31.0294	1006.22	63.1208	
71	136182	1082.22	46.0592	102.319	3125.14	154.728	32.0313	1037.29	54.0854	
72	139415	1135.76	32.0296	111.379	3325.05	153.719	21.0135	1079.84	69.1437	
73	136913	1103.61	48.0622	91.2533	3149.79	162.806	32.0345	1079.97	68.1392	
74	136905	1073.47	38.0397	94.2756	3143.52	141.61	32.0313	1040.62	63.1196	
75	137396	1101.4	43.0478	87.2305	3160.08	107.351	26.023	1098.06	57.0983	
76	136408	1102.4	39.0423	117.42	3240.74	120.442	29.0275	1066.3	70.1471	
77	137743	1147.61	45.0586	112.385	3339.54	147.663	36.0454	1086.3	64.1251	
78	135661	1103.75	47.0634	118.425	3153	143.628	43.063	1029.78	58.1016	
79	137846	1070.27	43.0524	80.196	3199.35	151.7	28.024	1094.93	62.1174	
80	136757	1075.68	41.0437	97.2867	3202.78	155.738	32.0331	1030.95	63.1213	
81	134361	1019.43	42.0498	97.2867	3151.79	153.719	29.0257	1035.02	61.1138	
82	137293	1103.61	48.066	102.319	3278.12	139.593	25.0206	1077.79	60.1055	
83	134357	1023.56	43.0503	95.2752	3191.84	157.757	38.0459	1009.58	68.14	
84	136727	1006.66	35.0332	118.43	3273.46	142.619	44.0619	1146.29	70.1464	
85	135531	1080.02	37.0382	83.2109	3156.07	166.857	32.0313	1057.57	75.1712	
86	135851	1029.69	41.0459	100.305	3186.98	136.568	31.0347	1092.76	66.1297	
87	135712	999.963	47.0667	104.331	3219.6	139.593	27.0256	1068.06	58.1024	
88	133926	993.646	36.0375	98.2931	3266.14	143.628	34.0353	1032.03	71.1534	
89	136067	1057.67	47.0604	85.221	3277.35	134.559	41.0532	1051.07	76.1756	
90	134246	1018.3	40.0455	91.252	3179.48	117.427	36.0468	1029.75	67.1367	
91	134495	1041.54	38.035	107.35	3145.94	139.593	38.0465	1076.65	66.1328	
92	134523	985.088	39.042	91.2578	3291.82	146.654	33.0351	1096.96	63.1213	
93	133201	1024.49	54.08	88.2363	3168.98	156.747	26.0207	1057.56	65.1264	
94	135682	1063.8	31.026	109.364	3287.12	153.719	46.0701	1046.9	59.1061	
95	133555	1006.53	35.0364	106.344	3158.85	133.543	40.0502	1080.98	74.1668	
96	135274	1016.98	35.0344	79.1944	3255.15	137.576	28.0263	1050.94	80.1918	
97	134542	1036.14	42.0491	109.364	3187.98	133.543	28.024	1006.33	64.1242	
98	132769	1025.52	41.0489	87.236	3190.84	154.73	49.0758	1056.37	64.1271	
99	133377	1029.82	40.0434	103.337	3249.27	114.398	31.0351	1086.4	60.1093	
100	131173	985.045	48.0661	96.2824	3203	149.682	29.0257	1022.43	44.0587	
101	127508	947.959	46.0563	98.2991	3065.74	133.543	28.024	1009.74	59.1048	
102	129750	920.605	35.0347	95.2804	3127.35	128.503	30.0275	1026.72	62.1147	
103	127943	923.605	35.0338	76.1765	3133.62	134.551	31.0325	983.926	65.1264	
104	125588	932.189	48.0646	102.319	3118.88	120.442	38.0487	975.604	57.099	
105	128080	995.836	46.0606	88.2371	3131.41	109.364	27.0223	1068.22	63.1211	
106	125714	942.861	36.0359	103.324	2982.76	137.576	23.0201	1004.2	64.1246	
107	124250	910.045	34.0339	88.2372	3085.05	113.391	38.0459	1055.42	43.0559	
108	124437	909.914	30.0265	89.2408	2930.25	129.511	34.0358	995.913	54.0871	
109	125226	900.797	42.0502	79.1908	2985.72	123.464	35.0393	964.899	59.1065	
110	123439	894.175	43.0516	96.2822	2950.79	125.479	33.0349	991.599	59.105	
111	121114	875.114	33.0306	92.2573	3005.97	121.456	42.0558	964.055	41.0497	
112	119243	899.457	43.0544	81.2	2963.77	119.441	25.0203	955.732	63.1208	
113	121644	891.91	35.0352	84.216	2897.99	112.385	29.0305	963.861	56.0939	
114	120871	884.634	42.0506	106.343	2956.78	136.568	22.0148	921.43	54.0885	
115	119641	925.78	46.0596	94.2707	2884.87	127.495	20.0122	947.99	52.0827	
116	118839	820.243	43.0515	82.2072	2916.3	114.398	24.0202	937.307	60.11	
117	117426	885.615	46.0641	79.1908	2759.3	129.511	20.0122	960.801	56.0946	
118	120461	863.407	33.0298	100.306	2877.1	110.371	27.0269	924.776	52.0816	
119	119885	879.282	31.0283	85.2237	2896.61	123.472	26.0207	942.761	68.1386	
120	118029	874.116	47.0637	100.313	2817.03	105.338	33.0333	952.288	52.082	
121	117212	848.708	33.0317	97.2929	2795.65	109.371	28.0255	941.636	59.1064	
122	116283	886.671	23.0148	93.2649	2802.79	125.479	39.0465	899.272	46.0637	
123	115045	769.949	39.0445	96.2824	2762.67	122.456	28.0254	916.283	56.0951	
124	114863	821.345	38.0379	89.2426	2730.56	101.313	34.0384	939.529	38.0431	
125	113087	833.021	36.0367	84.2161	2772.2	101.313	25.0217	933.197	46.0647	
126	112986	811.833	43.0513	83.2132	2666.06	99.3003	24.0183	880.277	53.0838	
127	115385	803.478	45.0571	73.1623	2893.22	115.405	29.0257	899.326	55.0914	
128	114458	828.708	36.0378	84.216	2781.26	109.364	22.0161	917.352	52.0818	
129	114824	826.552	40.0441	77.1814	2789.55	130.518	28.0257	962.825	55.0939	
130	113832	821.345	25.0155	82.2044	2697.62	119.434	23.0162	890.747	51.0793	
131	113280	827.599	25.018	84.2147	2754.02	107.351	26.0207	884.599	56.0959	
132	113144	782.534	39.0443	72.1586	2669.06	103.325	25.0206	897.285	47.0666	
133	112422	831.862	42.048	64.1253	2732.74	115.405	32.0313	893.992	52.0823	
134	111507	870.169	30.0256	79.1905	2706.77	101.313	28.024	907.832	56.0956	
135	111355	782.387	30.0268	89.2496	2670.6	120.442	31.0313	855.964	53.0846	
136	110464	803.379	30.0252	77.1815	2595.43	109.364	21.0135	831.874	46.0643	
137	111017	775.238	36.0352	78.1863	2753.57	105.338	22.0158	895.095	50.0765	
138	110914	713.394	35.0328	76.1762	2771.96	115.405	29.0292	917.311	59.1096	
139	113290	831.864	28.0234	103.328	2788.55	110.371	31.0294	887.639	42.0535	
140	113011	840.284	45.0558	83.2106	2818.22	135.559	27.0223	849.872	49.0755	
141	113847	814.037	33.0296	85.2213	2788.55	114.405	25.0191	881.448	57.098	
142	112762	794.325	32.0266	93.2631	2872.95	113.391	29.0257	959.648	44.0571	
143	113483	758.517	43.0509	76.1768	2785	114.398	29.0257	897.3	61.1132	
144	113041	783.534	31.0277	106.343	2726.02	105.338	23.0162	882.549	55.0914	
145	112090	797.127	40.0455	98.2935	2728.2	112.385	22.0148	938.566	55.0915	
146	113097	796.212	33.0309	93.2671	2850.32	111.378	27.0256	866.634	56.0932	
147	112351	791.127	37.0398	92.2588	2729.56	98.2943	26.0207	865.643	58.0992	
148	112750	835.044	34.0334	101.32	2809.91	122.456	30.0275	883.559	40.048	
149	111872	773.094	26.0199	87.2312	2722.47	122.456	22.0148	925.726	55.091	
150	159205	1476.1	91.239	142.619	4702.05	240.76	65.1402	1416.53	186.045	
151	217915	1865.34	82.1871	146.654	6587.24	255.989	84.2407	1770.33	147.661	
152	208517	1809.98	76.1552	165.836	5981.52	243.812	73.1666	1738.23	149.678	
153	201531	1670.64	67.1246	163.82	5790.71	232.644	70.1536	1618.62	135.553	
154	196395	1638.61	73.1481	177.961	5698.66	223.531	60.1133	1619.76	125.473	
155	193068	1644.19	73.1505	167.859	5464.03	238.731	67.1453	1641.45	123.457	
156	191155	1536.27	81.1935	166.847	5347.19	219.463	56.1018	1595.83	122.452	
157	190188	1559.16	73.1508	151.705	5416.25	209.332	45.071	1627.69	95.2743	
158	190284	1523	72.1387	154.735	5184.45	236.702	45.0701	1456.12	113.387	
159	186101	1509.73	68.1324	170.886	5297.75	226.559	47.0724	1551.54	116.413	
160	188137	1545.46	75.1569	173.927	5147.44	212.37	54.0892	1524.21	119.433	
161	185103	1487.99	65.1177	154.728	5300.13	203.256	63.1249	1531.78	108.35	
162	185235	1556.96	75.1624	148.672	5162.51	229.601	52.0827	1574.2	91.2518	
163	185233	1469.21	70.1425	159.775	5324.41	230.615	62.1205	1580.94	112.383	
164	184264	1517.66	62.1143	157.757	5337.49	212.37	44.0687	1582.31	110.367	
165	364649	3975.67	178.909	424.445	13340.4	586.399	148.703	3505.11	301.741	
166	339829	3500.22	167.765	340.514	11748	526.365	131.541	3274.61	257.993	
167	336732	3411.93	174.827	356.857	11242	480.993	116.432	3444.63	248.869	
168	335603	3289.62	147.587	367.094	11704.2	544.997	127.516	3493.03	265.099	
169	336440	3402.54	114.368	376.288	11415.6	482.081	107.363	3444.78	246.837	
170	337589	3383.12	165.767	384.47	11647.2	512.946	121.498	3559.11	232.624	
171	334715	3359.44	174.867	376.283	11639	494.415	127.528	3527.91	216.395	
172	337887	3386.22	145.584	378.339	11575	465.581	116.458	3461.67	234.646	
173	335145	3458.79	163.752	381.415	11592	509.851	116.451	3437.06	247.84	
174	336169	3407.64	165.778	385.49	11615.9	509.883	113.422	3523.72	227.558	
175	335685	3224.33	162.735	368.104	11756.8	496.477	114.414	3413.57	245.81	
176	336832	3398.88	134.51	372.206	11691	495.415	121.474	3428.36	246.827	
177	336407	3311.44	142.568	372.186	11962.8	504.694	131.553	3462.25	220.461	
178	335746	3322.28	165.779	385.509	11926.5	513.978	109.406	3496.14	225.522	
179	335169	3283.56	162.757	369.121	11536.6	466.581	116.441	3417.38	240.725	
180	336953	3369.03	146.585	399.874	11865.4	484.081	125.517	3463.56	232.622	
181	334762	3267.97	147.623	352.791	11675.7	502.632	110.371	3386.46	224.526	
182	338412	3408.49	180.922	365.043	11655.3	462.466	129.532	3562.42	222.478	
183	340331	3350.71	167.814	372.192	12130.9	480.992	116.433	3633.03	240.751	
184	339273	3343.77	158.699	362.002	11963.7	472.785	109.384	3469.69	244.805	
185	339824	3374.82	178.907	377.31	11845.9	463.495	93.29	3580.06	252.909	
186	338146	3339.57	163.744	329.285	12053.6	442.934	126.516	3445.01	236.689	
187	338828	3315.38	161.721	342.552	12068.8	490.263	132.562	3496.97	226.543	
188	340425	3368.1	175.88	398.853	12080.4	477.903	116.437	3464.13	236.698	
189	340416	3380.43	175.855	421.382	12174.8	456.324	118.449	3512.03	267.161	
190	339951	3303.69	185.975	375.274	12098.2	496.446	147.702	3586.42	250.873	
191	340635	3259.33	169.802	387.556	11963.8	481.022	122.471	3546.68	228.556	
192	340588	3340.22	144.583	373.237	12040.7	465.581	106.375	3682.04	236.674	
193	340951	3214.81	150.651	385.505	12103.5	487.199	125.518	3659.2	238.714	
194	339768	3310.23	176.885	411.14	11927.5	533.629	125.505	3557.73	240.76	
195	341566	3337.44	167.801	357.905	12024.1	475.873	136.598	3590.51	244.788	
196	342987	3408.04	175.872	379.415	11952.3	513.978	128.503	3575.5	229.573	
197	340048	3332.69	159.737	349.743	12056.6	471.755	102.353	3633.72	234.655	
198	341159	3325.53	193.029	344.638	12067.8	500.601	119.448	3599.43	214.386	
199	341927	3357.31	157.709	398.803	12247.5	489.232	145.66	3616.08	230.584	
200	342725	3265.08	159.721	421.393	12220.1	503.746	110.4	3541.68	243.784	
201	343490	3151.06	182.942	398.821	12280.2	502.632	124.499	3608.84	221.469	
202	340838	3320.18	176.874	400.876	12279.5	488.232	133.555	3586.93	240.748	
203	342576	3271.34	160.719	395.778	12254	492.384	130.548	3609.08	237.704	
204	341873	3275.45	160.722	422.384	12367.3	470.697	137.597	3505.27	248.863	
205	343520	3270.45	167.817	398.821	12538.3	551.168	141.617	3655.11	246.834	
206	342179	3204.26	163.763	351.745	12316.3	508.851	121.498	3595.4	237.696	
207	342781	3321.74	169.807	414.205	12135.9	476.873	121.47	3651.26	236.689	
208	343612	3265.21	160.712	411.122	12213.9	500.569	120.464	3562.13	225.524	
209	342459	3366.79	153.665	376.289	12316.4	474.814	153.728	3609.88	255.974	
210	345245	3363.07	161.725	342.548	12498.5	511.915	130.54	3624.46	265.118	
211	344070	3306.7	169.817	403.95	12316.3	496.477	112.39	3722.98	254.966	
212	346663	3464.02	168.808	413.16	12489	543.938	135.566	3657.97	240.722	
213	343692	3241.27	146.624	415.233	12584.6	472.785	115.452	3632.26	232.616	
214	345201	3248.88	155.703	382.428	12654.8	515.073	101.334	3591.18	244.827	
215	345503	3290.66	168.795	371.179	12578.3	529.464	126.523	3754.68	256.977	
216	345688	3325.73	151.656	396.779	12410.5	497.538	116.44	3719.7	224.519	
217	346632	3361.9	154.689	389.626	12446.2	500.569	143.678	3743.18	216.417	
218	347383	3352.17	160.737	427.547	12604.1	470.697	128.517	3718.77	245.82	
219	346903	3354.38	172.843	388.585	12678.8	510.883	108.395	3649.17	232.63	
220	345022	3215.21	164.726	388.604	12593.3	500.569	122.482	3739.03	237.694	
221	345776	3237.92	161.726	405.981	12472.8	476.903	113.423	3742.94	221.485	
222	345764	3305.5	159.742	389.609	12408	477.932	124.492	3707.22	248.856	
223	347508	3208.36	159.738	448.074	12569.6	483.051	122.494	3707.81	234.66	
224	347151	3340.21	179.906	383.447	12739.6	522.268	118.441	3758.82	242.777	
225	346903	3237.12	155.677	419.34	12475.2	506.757	135.59	3733.45	218.43	
226	347936	3265.67	166.804	409.077	12939.7	529.562	103.375	3685.52	250.904	
227	347014	3285.23	179.879	404.977	12528.7	487.172	132.557	3723.9	217.438	
228	347337	3265.27	157.703	413.159	12559.8	473.785	124.5	3630.18	247.853	
229	345860	3283.68	173.828	396.771	12748.3	480.992	126.529	3750.8	241.767	
230	349215	3359.66	153.667	385.492	12661.8	488.202	125.514	3777.93	250.904	
231	348643	3327.61	139.563	438.848	12577.2	495.415	119.455	3747.34	225.531	
232	348377	3298.57	161.717	397.779	12650.5	475.844	128.539	3782.17	231.607	
233	350289	3220.33	165.799	425.541	12530.8	506.757	124.479	3717.08	260.043	
234	347492	3227.86	168.81	442.947	12846.4	524.364	128.537	3791.84	280.372	
235	347358	3186.2	187.989	436.75	12506.2	521.203	112.415	3817.03	240.748	
236	349765	3309.03	165.788	415.211	12535.3	498.508	120.455	3726.6	254.953	
237	348976	3171.32	173.842	435.733	12861.8	501.601	108.383	3809.96	236.687	
238	349539	3258.68	195.117	425.488	12960.2	461.463	143.667	3795.45	242.772	
239	350236	3193.78	171.832	439.87	12833.4	486.142	128.517	3807.63	237.71	
240	349385	3276.23	152.655	388.6	12720.2	466.61	124.501	3760.05	261.039	
241	350464	3341.49	186.988	397.787	12969.8	510.915	123.491	3723.92	252.92	
242	349270	3354.41	183.925	438.833	12624.5	501.601	129.527	3705.08	253.95	
243	350149	3313.56	178.896	421.377	12858.8	485.111	121.487	3834.3	230.596	
244	348353	3399.19	186.985	425.476	12556.8	459.409	123.499	3730.47	243.775	
245	351316	3247.93	184.977	419.325	13128.4	458.391	127.543	3782.78	254.967	
246	348820	3211.61	168.799	395.752	13232.1	478.962	130.554	3681.67	252.904	
247	352599	3362.22	176.875	418.305	13032	500.569	130.556	3742.33	257.991	
248	351246	3306.25	162.75	418.315	13096.9	497.489	123.471	3774.78	242.781	
249	353024	3298.6	208.222	451.145	13220.1	498.508	141.644	3779.62	260.045	
250	351468	3269.52	156.702	439.846	13054.9	515.01	114.445	3843.79	251.909	
251	353480	3413.66	160.756	415.226	13107.9	484.081	127.517	3801.21	245.817	
252	350396	3262.35	185.004	432.653	13126.3	480.992	115.432	3775.25	232.631	
253	352991	3329.34	207.205	458.341	13307.8	472.755	133.581	3844.2	252.915	
254	350607	3310.11	186.982	438.82	13039.8	534.642	134.599	3825.75	246.83	
255	354372	3314.26	154.669	451.154	13173.9	499.539	140.618	3823.42	287.498	
256	352918	3233.07	186.992	461.416	13065	520.171	135.614	3781.04	244.796	
257	354170	3406.72	196.056	461.433	13003.9	489.232	136.583	3966.42	217.429	
258	354286	3174.11	182.949	417.326	13313.8	476.903	127.526	3883.57	237.704	
259	353547	3374.36	208.231	452.173	13197.5	491.293	122.478	3881.19	236.691	
260	355072	3354.32	180.909	434.716	13653.7	526.398	130.548	3912.49	262.049	
261	354345	3250.93	180.931	427.539	13258.8	518.126	124.507	3868.12	250.911	
262	355020	3403.58	176.898	441.9	13510.9	516.042	118.442	3866.16	254.946	
263	354496	3221.12	157.708	453.227	13107.5	504.725	117.444	3959.16	273.235	
264	354205	3278.75	175.883	416.265	13418.9	539.795	133.58	3957.8	253.944	
265	355662	3125.41	171.872	410.16	13514.5	488.202	115.413	3858.36	262.069	
266	355799	3383.89	182.931	477.956	13314.8	507.788	135.598	3922.8	249.875	
267	354600	3302.47	173.857	408.033	13121.8	478.932	133.597	3908.67	229.577	
268	356524	3255.38	194.043	483.05	13437.2	515.01	144.678	3997.59	260.052	
269	356999	3322.51	163.75	464.516	13485.8	509.851	123.505	3869.59	267.146	
270	357640	3217.9	184.955	444.982	13601.8	468.639	126.515	3997.65	259.018	
271	357578	3290.34	180.954	452.192	13460.4	511.915	137.601	3968.08	265.122	
272	356884	3208.46	188.008	453.222	13731.9	512.946	134.581	3856.18	220.467	
273	358114	3253.03	184.964	442.957	13612	533.611	134.596	4003.78	222.493	
274	356138	3408.5	206.182	461.463	13349.2	469.697	129.518	3904.38	237.709	
275	356628	3307.12	194.072	454.296	13407	495.446	134.579	3936.94	233.647	
276	358608	3227.85	170.823	437.801	13596.5	541.862	115.43	3900.15	256.988	
277	356003	3342.9	199.119	418.291	13565.5	467.61	138.617	3942.44	235.662	
278	357205	3256.25	177.896	479.952	13575.6	496.446	134.575	4009.32	275.264	
279	357185	3259.69	163.745	465.542	13484.5	533.662	132.556	3943.18	265.124	
280	357561	3230.04	165.768	484.111	13396.7	526.365	130.532	3933.89	269.173	
281	355974	3279.3	196.116	485.104	13781.1	464.523	136.623	3942	264.062	
282	357963	3177.33	185.949	432.658	13428.7	507.82	126.507	4084.78	252.931	
283	357473	3266.01	170.81	428.546	13569	477.903	127.502	3973.49	236.685	
284	357849	3219.47	199.116	450.124	13670.8	491.293	144.662	3910.76	229.597	
285	357191	3187.32	175.877	443.997	13675	472.755	138.625	3942.57	251.908	
286	358888	3263.13	197.105	469.684	14009.3	520.203	135.582	4026.81	217.419	
287	359458	3289.68	144.596	513.989	13712.5	544.964	138.612	3962.74	259.036	
288	359739	3277.47	189.983	454.236	13816.9	502.632	120.455	3976.45	237.706	
289	358019	3240.75	176.913	513.99	13620.2	492.323	130.532	4060.1	249.852	
290	359039	3278.11	199.102	471.725	13588.4	519.138	129.532	3941.26	269.163	
291	357707	3247.49	209.239	488.192	13922.5	510.883	122.464	3979.79	275.27	
292	358505	3159.34	195.072	463.503	13794.7	526.369	134.558	3844.13	288.506	
293	360352	3232.22	198.117	457.333	13902.5	518.106	129.54	3994.14	269.187	
294	360324	3174.33	187.999	460.433	13758.6	510.915	119.464	3947.1	228.579	
295	360535	3300.09	186.991	460.419	13654.3	486.142	115.424	4061.28	272.225	
296	359783	3154.06	174.888	469.678	13925.2	528.431	151.75	4005.13	264.109	
297	360489	3287.2	180.935	485.107	13834.8	480.992	114.43	3923.09	276.305	
298	359683	3287.08	236.604	443.951	13750.6	526.365	118.462	4091.84	256.989	
299	360190	3303.81	193.075	491.329	13937.9	510.883	153.744	3978.5	239.726	
300	360624	3281.23	187.001	431.637	13916.5	523.268	132.545	4163.77	281.384	
301	359857	3187.27	182.987	457.301	13859.7	502.694	142.645	3976.5	241.744	
302	361030	3222.34	197.106	463.522	14169.7	504.757	115.434	3949.12	253.932	
303	363722	3214.81	182.953	455.305	13739.7	504.694	145.67	3925.37	255.96	
304	360497	3252.81	185.995	486.166	13797	537.728	165.865	4086.44	260.031	
305	361536	3227.98	180.902	450.172	13759.8	562.583	146.707	4122.56	278.318	
306	362088	3194.13	176.874	482.016	13954.3	492.323	139.639	4122.16	273.235	
307	361801	3244.27	202.153	502.636	14054.8	512.978	119.45	4038.07	287.486	
308	363734	3309.68	183.962	466.58	14067.6	510.883	125.508	3990.97	269.173	
309	361646	3272.98	213.29	446.024	14095.9	482.05	129.524	4014.44	249.877	
310	362651	3247.37	180.942	479.01	14076.4	519.171	139.593	4048.38	283.397	
311	362604	3160.77	178.891	476.863	14114.1	522.268	116.425	4130.33	269.196	
312	362728	3215.63	172.87	464.545	14281.4	547.031	147.714	4089.6	258.995	
313	362171	3269.74	170.828	449.132	14143.3	519.138	103.359	4109.91	226.539	
314	363288	3146.17	196.083	492.344	14060.1	550.134	136.583	3994.5	243.78	
315	363784	3217.25	190.003	474.808	14360.8	482.064	129.533	4069.08	251.887	
316	363306	3261.91	178.911	512.931	14053.4	530.497	137.584	4109.28	268.174	
317	364450	3232.74	175.891	502.668	14007.9	544.964	132.548	4069.29	271.221	
318	361359	3151.06	182.958	467.65	14233.6	493.354	151.728	4087.22	238.729	
319	362347	3128.2	202.162	477.968	14354	515.042	134.581	4072.51	248.874	
320	363681	3173.11	186.998	482.011	14365.7	526.365	125.494	4120.27	272.237	
321	361772	3223.76	195.104	460.409	14368.7	532.629	126.529	4150.11	258.006	
322	362984	3186.62	226.46	475.855	14000.7	490.293	131.57	4027.06	267.15	
323	362190	3171.9	206.196	447.039	13858.8	506.788	143.657	4133.16	259.024	
324	364679	3163.11	204.204	486.177	14100.3	493.384	112.407	4148.23	238.712	
325	361261	3210.95	191.053	472.769	13939.5	527.431	167.877	4062.76	249.88	
326	363942	3160.77	184.975	496.459	14526.5	557.386	145.66	4109.2	235.666	
327	362985	3075.22	198.119	466.602	14283.9	521.203	129.546	4227.31	273.247	
328	364547	3262.58	199.099	450.165	14318	490.384	114.434	4148.45	275.274	
329	363630	3220.68	202.175	472.794	14161.9	496.446	135.599	4112.31	248.862	
330	363987	3092.99	206.189	487.195	14172.7	556.34	125.507	4106.73	272.238	
331	361098	3193.21	192.057	495.413	13990.6	543.93	123.519	4136.46	258.996	
332	364932	3123.19	183.964	426.515	14069.6	547.031	141.635	4191.49	250.885	
333	364638	3116.78	197.1	490.285	14363.3	537.728	127.523	4036.43	243.805	
334	364136	3120.14	177.893	464.547	14051.4	510.915	121.483	4143.85	268.163	
335	362862	3158.12	189.037	469.666	14139.5	516.042	111.407	4116.87	241.763	
336	363616	3140.52	201.153	467.648	14420.3	534.629	127.533	4031.12	266.112	
337	363523	3095.37	208.238	474.837	14168.4	551.202	123.501	4113.77	303.791	
338	363954	3156.35	172.876	510.903	14354.4	514.01	135.598	4200.92	264.111	
339	364685	3146	207.225	478.926	14173.5	504.694	133.566	4147.03	257.999	
340	364186	3229.27	193.077	466.6	14222.7	525.333	142.651	4191.06	266.133	
341	365483	3098.17	184.948	464.532	14489.4	509.851	130.534	4164.36	231.608	
342	364080	3121.14	210.271	502.659	14488.4	537.788	133.567	4109.84	253.921	
343	364899	3197.42	184.964	495.478	14435.2	506.82	153.728	4160.76	261.057	
344	364289	3098.54	204.186	527.391	14307.7	505.725	139.602	4151.46	238.725	
345	366033	3101.62	213.304	503.681	14047.3	552.271	133.574	4113.03	230.605	
346	364601	3229.08	203.19	476.885	14510.3	522.235	114.411	4139.17	258.012	
347	365824	3113.59	174.871	549.137	14397.6	541.862	151.751	4089.39	257.996	
348	363669	3150.44	204.17	463.488	14503.3	513.978	129.541	4169.62	264.094	
349	362798	3287.44	197.129	511.962	14329.8	515.041	139.608	4160.76	281.392	
350	364354	3011.9	203.159	481.01	14306.2	511.915	157.776	4122.74	262.054	
351	363536	3180.39	190.044	518.158	14257.4	505.725	151.727	4192.62	263.093	
352	365670	3127.41	228.501	477.914	14583.5	512.978	116.432	4117.44	260.04	
353	365436	3162.91	219.37	472.748	14526.3	497.477	140.626	4196.03	244.803	
354	365979	3177.18	178.883	470.698	14346.7	517.074	133.564	4138.24	250.888	
355	365931	3156.92	195.089	475.83	14301.1	526.365	124.472	4187.21	269.176	
356	365563	3225.34	183.964	451.149	14673	512.946	127.533	4144.38	258.024	
357	366750	3155.13	203.187	538.786	14301.9	515.01	102.331	4240.63	272.227	
358	363351	3106.43	192.031	475.843	14237.8	487.172	122.471	4215.63	260.027	
359	365910	3181.12	208.244	476.861	14374.3	495.446	129.53	4193.55	271.217	
360	365028	3160.34	205.177	463.525	14125.7	528.439	133.588	4105.95	256.991	
361	368372	3157.92	197.126	516.049	14646.5	510.915	146.704	4205.43	277.299	
362	365589	3175.55	206.213	498.509	14640.2	525.333	118.46	4181.07	237.691	
363	365735	3230.92	221.377	474.819	14366.3	499.6	135.573	4257.35	282.388	
364	366184	3124.38	206.223	522.261	14471.8	536.762	129.511	4192.3	250.896	
365	367629	3166.97	204.177	517.073	14256.5	488.202	157.785	4238.75	252.924	
366	367912	3061.15	204.209	496.443	14483.4	507.788	135.582	4121.86	272.232	
367	368107	3221.1	165.752	509.838	14665.7	520.182	142.651	4113.38	279.344	
368	367512	3011.15	216.312	510.947	14392.6	464.552	159.813	4181.56	251.892	
369	366651	3115.19	202.178	538.816	14269.9	474.814	126.516	4230.45	279.362	
370	366843	3145.37	214.307	494.389	14517.4	535.662	143.662	4153.44	256.99	
371	368065	3089.12	231.522	509.891	14601.1	477.903	132.549	4199.12	273.244	
372	366069	3140.73	203.196	505.766	14501.5	465.581	148.689	4179.3	260.033	
373	370023	3197.19	213.263	506.763	14628.9	496.446	131.542	4262.99	232.631	
374	368389	3271.97	218.323	528.46	14574.1	543.964	111.41	4278.65	267.145	
375	367790	3168.03	194.057	495.454	14447.6	494.415	162.845	4097.82	266.123	
376	369759	3069.6	197.132	581.203	14507.3	498.508	159.835	4158.41	262.051	
377	367791	3093.96	201.175	541.884	14097.6	558.409	133.582	4177.19	255.972	
378	369601	3012.76	216.338	519.203	14446.8	534.728	124.493	4159.78	235.676	
379	368299	2977.81	225.455	483.058	14553.9	501.601	132.565	4164.21	254.965	
380	369548	3104.85	205.206	538.772	14448.6	496.446	151.709	4159.81	285.458	
381	367818	3074.02	212.294	532.572	14557.3	532.562	142.627	4264.24	256.977	
382	366829	3165.27	224.437	514.016	14852.7	446.016	131.57	4219.78	246.804	
383	367710	3062.53	184.985	503.676	14518	490.263	138.605	4172.01	269.156	
384	367754	3066.24	209.258	517.06	14371.1	501.601	169.924	4210.91	246.833	
385	367612	3143.19	217.355	565.745	14369.1	516.042	134.584	4218.43	276.318	
386	366232	3070.51	193.06	486.156	14335.1	497.477	147.715	4337.61	276.287	
387	367877	3123.77	188.022	500.568	14396.6	510.915	150.708	4164.93	272.231	
388	368049	3037.26	211.275	486.132	14507.7	498.538	116.426	4157.3	285.461	
389	367969	3105.63	207.228	514.001	14482.1	570.865	139.613	4105.97	233.627	
390	369677	3095.16	226.478	498.497	14350.5	541.906	145.647	4148.7	263.08	
391	369011	2950.84	215.341	520.183	14269.4	500.608	138.659	4205.44	241.76	
392	367975	3091.13	191.023	512.942	14792.9	484.081	133.557	4210.57	265.126	
393	369716	3028.64	158.731	495.407	14472	515.01	153.756	4116.76	243.787	
394	371437	3031.39	191.048	528.453	14624.5	500.632	129.548	4151.05	246.837	
395	371327	3125.14	221.405	530.487	14427.8	549.133	137.609	4134.18	271.21	
396	368512	2983.15	195.048	579.109	14576.4	511.915	119.448	4121.81	264.098	
397	367959	2967.63	188.013	490.272	14266	500.569	144.654	4139.72	285.45	
398	369250	3077.63	215.29	501.587	14478.2	511.915	142.644	4160.29	266.138	
399	371950	3140	182.944	530.495	14595.7	526.365	142.66	4249.84	300.704	
400	0	0	0	0	0	0	0	0	0	
